File: gsoc_xylib/samples/uxd/sample4.uxd
; C:\httpd\HtDocs\course\content\week-1\sample4.raw - (Diffrac AT V1) File converted by XCH V1.0
_FILEVERSION=1
_SAMPLE='DM1'
_WL1=1.540560
_WL2=1.544430
_WL3=1.392600
_WLRATIO=0.514000
_ANODE='Cu'
; (Data for Range number 1)
_DRIVE='COUPLED'
_STEPTIME=15
_STEPSIZE=0.020000
_STEPMODE='C'
_START=4.990000
_2THETA=4.990000
_THETA=0.000000
_KHI=0.000000
_PHI=0.000000
_TEMPERATURE=-17
_COUNTS
     1926      1984      2001      1853      1920      1767      1902      1920
     1671      1688      1660      1648      1568      1607      1637      1560
     1469      1455      1441      1461      1534      1471      1458      1447
     1356      1361      1348      1362      1296      1301      1294      1328
     1199      1181      1213      1128      1130      1148      1189      1171
     1094      1072      1071      1055      1064      1130      1030      1125
     1821      1969      2064      2219      2572      2859      3114      3191
    65095     55508     44508     32148     21823     13289      6895      3056
      869       841       828       823       848       792       796       847
      743       759       795       710       709       710       711       730
      720       685       735       776       715       677       726       692
      663       628       662       629       682       709       698       655
     3015      3350      3754      4293      4583      5416      6580      8061
      786       822       753       800       800       828       852       862
      682       640       682       659       717       791       801       838
      597       572       555       559       574       538       529       579
      517       526       493       571       530       503       535       480
      460       497       491       487       484       525       496       456
      476       493       480       469       458       465       488       483
      488       529       518       549       566       577       630       629
     1130       902       638       598       530       479       533       502
      684       653       736       790       953       997      1078      1241
      596       569       505       496       511       476       478       462
     3298      3774      4275      5092      5435      5573      5680      5192
      504       481       535       482       511       570       564       572
      837       933      1060      1275      1482      1681      2043      2504
     3041      1946      1313       985       850       740       702       643
      433       452       455       453       453       475       455       419
      405       398       440       418       426       400       457       452
      778       945      1073      1193      1458      1668      1808      1890
     1462      1705      1982      2415      3076      3804      5045      6254
      694       648       707       608       623       660       690       670
    19474     17582     14803     12466     10065      7706      5570      4021
     2951      3758      4550      5169      6050      6189      5841      5416
      889       722       712       659       648       652       622       648
    13857     11477      9195      6608      4658      3194      2123      1588
     4896      3802      2689      1958      1554      1326      1311      1501
      723       720       716       707       739       733       853       786
     1958      2468      3267      4133      5376      6715      8095      9718
      578       584       572       512       565       579       557       593
      548       575       537       555       523       510       560       555
     5823      4295      3036      2261      1750      1281       945       744
      733       738       969      1041      1336      1723      2120      2544
      497       500       483       471       489       461       488       526
      568       581       646       680       684       676       698       694
      555       536       606       626       727       815       872       942
      521       529       572       522       580       577       606       576
     2594      1913      1412      1059       848       750       780       775
     3492      3391      2987      2656      2120      1818      1396      1202
      816       898      1130      1303      1506      1624      1772      1872
     6092      5329      4240      3174      2342      1649      1282      1050
      830       884      1005       961      1037       990       917       885
     6195      4724      3654      2821      2143      1696      1422      1356
      864       825       898       849       806       795       749       707
     1332      1439      1746      1767      1821      1812      1962      2311
      715       688       680       696       707       660       608       594
     1957      1705      1534      1286      1081       898       737       729
     4232      4128      3876      3739      3444      3025      2556      2175
     8744      8225      6978      5756      4714      3882      3210      2749
      428       419       456       448       413       445       418       460
     2455      2439      2389      2344      2269      2199      2058      1967
      641       581       615       619       580       599       529       500
      419       414       396       418       392       367       369       378
      690       686       748       728       737       816       900      1025
      458       445       471       519       488       542       557       553
     1933      1644      1269      1058       920       874       920       930
      549       516       475       403       400       395       376       386
      625       642       605       531       506       475       512       492
     1234      1160      1118       954      1027      1089      1182      1392
     1311      1693      2307      2847      3434      3784      3907      3786
      711       913      1198      1504      1705      2012      2100      2244
      428       421       400       415       473       501       529       574
      566       504       490       452       464       434       422       357
      630       650       667       685       710       784       808       908
      605       589       534       493       512       436       394       388
      520       504       493       443       456       441       372       394
     2000      1997      1775      1603      1586      1484      1573      1571
      330       366       339       379       352       381       421       365
      624       704       755       702       694       684       630       613
      621       627       637       602       647       618       626       665
     1809      2367      3054      3474      3455      3457      3312      3231
     2096      1996      1731      1611      1474      1395      1066       953
      550       674       727       810       946      1123      1309      1413
     1360      1310      1224      1124      1081       997       915       782
      818       788       772       812       762       818       940      1128
      471       477       481       481       504       548       608       635
      739       770       712       707       703       689       620       616
      728       779       921      1129      1390      1888      2422      2917
      506       468       534       544       576       642       627       685
      594       645       633       589       635       682       707       747
      666       706       693       734       772       859       829       819
     1011       897       864       740       603       533       506       445
      653       573       587       608       636       642       644       631
     1537      1445      1500      1427      1532      1499      1576      1495
     1447      1394      1288      1228      1143       889       748       668
      556       470       479       523       489       487       458       444
      486       479       553       554       517       579       582       650
      568       621       574       552       545       511       538       495
      688       661       575       545       551       466       434       395
      758       862       851       853       829       810       742       656
      567       498       461       427       427       411       369       390
     1399      1329      1293      1163      1075      1055      1098      1089
     1230      1118      1073      1056      1019      1108      1039       948
     3278      3542      3520      3312      2886      2489      2161      1836
      615       670       734       818       866       960       963       911
     1371      1349      1312      1333      1368      1425      1622      1579
      454       449       416       416       381       356       397       407
      803       731       735       708       592       609       593       529
      669       679       602       627       664       700       803       834
      364       377       398       403       435       409       424       484
     1294      1197      1035      1017       994       917       852       826
      476       477       446       419       371       403       416       390
      369       374       340       369       338       343       367       340
      382