File: gsoc_xylib/samples/uxd/sample3.uxd
; C:\httpd\HtDocs\course\content\week-1\sample3.raw - (Diffrac AT V1) File converted by XCH V1.0
_FILEVERSION=1
_SAMPLE='ZK'
_WL1=1.540560
_WL2=1.544430
_WL3=1.392600
_WLRATIO=0.514000
_ANODE='Cu'
; (Data for Range number 1)
_DRIVE='COUPLED'
_STEPTIME=15
_STEPSIZE=0.020000
_STEPMODE='C'
_START=3.990000
_2THETA=3.990000
_THETA=0.000000
_KHI=0.000000
_PHI=0.000000
_TEMPERATURE=-17
_COUNTS
     2668      2571      2525      2567      2532      2551      2597      2576
     2126      2076      2110      2076      2074      2146      2085      2076
     1803      1852      1824      1784      1875      1840      1714      1862
     1556      1652      1608      1620      1597      1561      1602      1575
     1409      1425      1545      1493      1461      1494      1484      1393
     1297      1333      1259      1263      1273      1329      1274      1309
     1243      1271      1246      1254      1238      1222      1246      1140
     1150      1116      1247      1155      1104      1185      1161      1166
     3073      3316      3807      4184      4478      4742      5292      5812
     1410      1291      1220      1207      1229      1158      1169      1218
      987       953       938       978       951       936      1029       949
      888       897       948       943       950       921       909       914
      909       906       923       959       929       920       876       902
      967       967      1058      1033      1079      1077      1102      1206
     5065      4010      3132      2241      1790      1394      1172      1115
     1060      1074      1118      1076      1110      1206      1270      1248
      981       937       991       924       920       952       933       960
      922       949       957       967       968       899       995       905
     1053      1142      1192      1205      1285      1283      1417      1463
     4068      2839      2041      1559      1314      1213      1116      1078
      993       990      1004       964       937       984       961      1001
     1411      1518      1602      1842      2044      2314      2789      3149
     1003       963       989      1055      1026       997       974       957
     1046      1022      1090      1178      1234      1212      1380      1394
      968       911       973       922       987       924       932       967
      966      1003      1037      1056      1088      1140      1190      1300
    41862     38194     32580     25382     18407     12485      7818      4992
      936       932       896       858       916       969       930       925
     1390      1386      1491      1566      1717      1687      1688      1690
     1207      1086      1114      1005      1040      1077      1137      1092
     2859      2055      1583      1314      1114      1072      1005       962
      896       906       920       928       910       848       884       840
     1048      1048      1090      1172      1175      1220      1231      1356
     2154      1618      1375      1271      1230      1125      1097      1130
     2502      3034      3600      4215      5306      6214      7266      7917
      965       970       962       926       930       984      1017       944
      954       938       977       947       927       955       929       930
     2753      2630      2416      2132      1810      1507      1307      1273
     1398      1205      1079      1091      1031      1061      1054      1016
      980       987       962      1036       985       983       981      1006
     1081      1026      1005      1070      1066      1105      1086      1094
     1583      1680      1842      1977      2208      2547      3080      3820
     7254      6972      7215      8015      9377     11901     14326     16416
     2555      2788      3010      3139      3051      2873      2762      2416
     1336      1446      1595      1739      1900      2123      2323      2519
     1089      1109      1066      1094      1094      1069      1093      1126
     5030      5424      5511      5245      4732      4319      3918      3293
     1111      1098      1154      1123      1146      1190      1169      1247
     1399      1336      1359      1414      1478      1652      1793      1964
     1041      1040       993      1083      1021      1068      1111      1019
     8858      8569      7749      7166      5921      4977      3916      3168
      963       942       972      1015       962       961       976       937
      962       984       966       983       947       948       969       897
      969       947       914      1046       996       996      1029      1055
     1283      1413      1381      1355      1266      1290      1204      1261
     2459      2684      2897      2919      2822      2714      2569      2341
     1124      1038      1024       979       989       996       983       959
     1244      1195      1214      1184      1217      1176      1186      1166
      930       916       987       959       947       922       944       855
     1162      1212      1325      1473      1489      1472      1658      1608
      955      1001       991      1038      1038      1017      1181      1151
     1024      1007      1053      1092      1023      1120      1164      1293
      999       980      1023      1009       980      1005       962      1009
      922       780       901       849       884       896       877       876
     1275      1222      1355      1351      1354      1352      1332      1284
      842       848       810       836       766       786       786       777
      733       734       753       757       769       751       819       783
     1140      1198      1241      1196      1313      1203      1193      1102
     1556      1731      1860      1983      1974      1996      1969      1931
      758       753       724       755       732       754       805       736
     3588      3318      3008      2839      2783      2455      2136      1809
      837       850       798       731       796       744       743       738
      785       765       777       801       758       811       776       844
     5645      4932      4383      3937      3423      2750      2146      1658
      843       834       831       813       810       777       764       815
      697       679       664       638       667       670       673       638
      740       800       746       890       935      1006      1105      1309
     2560      2281      2034      1852      1658      1325      1142      1004
      710       724       758       806       822       902      1071      1232
      663       648       611       617       662       592       626       599
     1437      1364      1292      1158      1127       942       866       853
     2662      2802      3207      3279      3025      2797      2532      2404
      627       640       624       650       620       606       587       566
      587       577       522       545       550       552       557       568
      723       723       728       671       724       740       770       803
      614       579       559       566       549       602       559       572
      605       614       592       652       704       693       821       915
      926       822       796       722       710       631       596       571
      637       617       576       601       567       513       539       556
     1770      1790      1702      1733      1864      1914      1981      1957
      773       759       727       757       770       770       776       822
      733       825       927      1091      1013      1021      1014      1024
      720       731       833       771       837       849       848       823
      744       792       801       695       748       707       715       712
     1101      1110      1188      1230      1183      1254      1301      1327
      633       650       627       553       608       577       561       547
      753       841       838       863       941       906       951       956
     1350      1365      1253      1178      1152      1069      1008       950
     1760      1677      1508      1324      1147      1076       872       850
      875       974       985       914       864       872       824       847
      613       610       626       637       577       671       630       607
      696       764       747       839       864      1018      1082      1170
      707       778       648       653       742       646       656       687
      783       861       867       949      1165      1434      1638      1996
     1095       978       973       970       972       867       806       890
     1729      1653      1525      1413      1298      1193      1111      1029
      917       854       910       983      1066      1105      1121      1140
      925       913       926       827       788       730       722       727
      528       426       521       455       492       485       488       494
     1006      1113      1203      1303      1376      1397      1439      1442
      617       657       649       686       708       730       693       757
     1256      1229      1287      1225      1137      1114      1101       990
      764       734       706       756       697       671       633       669
      622